VAMAS Surface Chemical Analysis Standard Data Transfer Format 1988 May 4
Not Specified
Not Specified
Not Specified
Not Specified
5
Casa Info Follows CasaXPS Version 2.3.26PR1.0
0
Created by SpecsLab Prodigy, Version 4.100.1-r111001 
SourceAnalyserAngle: Not Specified
CasaRowLabel:1 as-loaded
NORM
IRREGULAR
1
1
Value
d
0
0
0
0
1
Counts per Second
1 as-loaded
0
0
0
0
0
0
0
6
Casa Info Follows
0
0
0
0

XPS
0
Al
1486.61
1e+037
1e+037
1e+037
1e+037
1e+037
FAT
1e+037
1e+037
1e+037
1e+037
1e+037
1e+037
1e+037
1e+037
Survey

-1
3
Kinetic Energy
eV
Intensity
d
transmission
d
pulse counting
1
1
1e+037
1e+037
1e+037
1e+037
2
MFP Exponent
d
0
ESCAPE DEPTH TYPE
d
1
4053
0
1
0
1
0
1
136.61
15598.7
78.8103
137.61
15867.9
78.5146
138.61
15651.5
78.2222
139.61
15321.3
77.933
140.61
15793.4
77.647
141.61
15662
77.3642
142.61
15599
77.0844
143.61
15758.9
76.8076
144.61
15681.7
76.5338
145.61
15968.1
76.2628
146.61
15844.6
75.9948
147.61
15328.3
75.7295
148.61
15541
75.467
149.61
15355.9
75.2073
150.61
15531.3
74.9501
151.61
15831.1
74.6956
152.61
15628.4
74.4437
153.61
15643.4
74.1943
154.61
15649.2
73.9474
155.61
15508.5
73.703
156.61
16168.7
73.4609
157.61
16783.7
73.2213
158.61
16696.5
72.9839
159.61
17242
72.7489
160.61
16225.4
72.5161
161.61
16518.6
72.2855
162.61
16381.9
72.0571
163.61
16956.2
71.8309
164.61
16503.2
71.6068
165.61
17074.8
71.3847
166.61
16608.9
71.1647
167.61
16689.8
70.9468
168.61
16261.6
70.7308
169.61
16260.5
70.5168
170.61
15986.7
70.3047
171.61
15943.1
70.0945
172.61
15576.2
69.8862
173.61
15749.3
69.6798
174.61
15307.1
69.4751
175.61
15088.5
69.2723
176.61
15583.9
69.0712
177.61
15913.9
68.8719
178.61
17185.3
68.6743
179.61
17381.4
68.4783
180.61
20956.8
68.2841
181.61
26719.6
68.0914
182.61
27570.7
67.9004
183.61
22744.5
67.711
184.61
17508.6
67.5232
185.61
15654.7
67.337
186.61
15118.7
67.1522
187.61
15568.8
66.969
188.61
15345.7
66.7873
189.61
15303
66.607
190.61
14938
66.4282
191.61
15054.6
66.2508
192.61
14976.5
66.0749
193.61
15205
65.9003
194.61
15306.2
65.7271
195.61
15772.5
65.5553
196.61
15744.1
65.3848
197.61
15599.9
65.2156
198.61
15973.4
65.0477
199.61
15693.5
64.8812
200.61
15909.2
64.7159
201.61
16198.6
64.5518
202.61
15966.9
64.389
203.61
15489.1
64.2274
204.61
16474.9
64.0671
205.61
15956.1
63.9079
206.61
16501.6
63.7499
207.61
15931.6
63.5931
208.61
16115.7
63.4374
209.61
16611.5
63.2829
210.61
16061
63.1295
211.61
16121.6
62.9772
212.61
16202.9
62.8259
213.61
16392.4
62.6758
214.61
16503.7
62.5268
215.61
16364.4
62.3788
216.61
16383.3
62.2318
217.61
15654.5
62.0859
218.61
16709.3
61.941
219.61
16583.1
61.7972
220.61
17054.4
61.6543
221.61
16442.2
61.5124
222.61
16428.8
61.3715
223.61
16359.6
61.2315
224.61
17035.9
61.0925
225.61
16781.8
60.9544
226.61
16532.9
60.8173
227.61
16559.9
60.6811
228.61
17396.7
60.5458
229.61
17337.8
60.4114
230.61
16964.5
60.2779
231.61
17236.6
60.1453
232.61
17187.5
60.0135
233.61
17685.7
59.8826
234.61
17413.9
59.7526
235.61
17348.1
59.6234
236.61
17745.6
59.495
237.61
17594.6
59.3675
238.61
16802.7
59.2408
239.61
17579.8
59.1149
240.61
17782.9
58.9898
241.61
18013.3
58.8655
242.61
18298.8
58.7419
243.61
18710.3
58.6192
244.61
19254
58.4972
245.61
18792.1
58.3759
246.61
18473.2
58.2554
247.61
18138.4
58.1357
248.61
18382
58.0167
249.61
18782.5
57.8984
250.61
18880.3
57.7808
251.61
18841.1
57.664
252.61
19294.1
57.5479
253.61
19521.4
57.4324
254.61
19505.7
57.3177
255.61
19003.9
57.2036
256.61
18726.7
57.0902
257.61
19079.4
56.9775
258.61
19667.5
56.8655
259.61
19860.6
56.7541
260.61
19563
56.6433
261.61
18944.9
56.5332
262.61
19116.6
56.4238
263.61
19366.5
56.315
264.61
19505.1
56.2068
265.61
19660.1
56.0992
266.61
19174.2
55.9922
267.61
19440.8
55.8859
268.61
18765.7
55.7801
269.61
19529.4
55.675
270.61
19357.7
55.5704
271.61
19126.9
55.4665
272.61
19879
55.3631
273.61
19197.5
55.2603
274.61
18743
55.158
275.61
19303.7
55.0564
276.61
18895.3
54.9553
277.61
18912.6
54.8547
278.61
19686.7
54.7547
279.61
20311.5
54.6552
280.61
20127.5
54.5563
281.61
20015.3
54.4579
282.61
19671.3
54.3601
283.61
20388.9
54.2627
284.61
20034.7
54.1659
285.61
19391.1
54.0696
286.61
20300.1
53.9738
287.61
21079.8
53.8786
288.61
20574.4
53.7838
289.61
20595.9
53.6895
290.61
20473.3
53.5957
291.61
20257.8
53.5024
292.61
20594.2
53.4096
293.61
21018
53.3173
294.61
20826.8
53.2255
295.61
20919.6
53.1341
296.61
21146.1
53.0432
297.61
20211.1
52.9528
298.61
20873.9
52.8628
299.61
21184.1
52.7733
300.61
20921.1
52.6842
301.61
20697.5
52.5956
302.61
21410.1
52.5074
303.61
20987.3
52.4197
304.61
21123.2
52.3324
305.61
21283.8
52.2455
306.61
21746.4
52.1591
307.61
22075.1
52.0731
308.61
21570
51.9875
309.61
21459.8
51.9024
310.61
21401.2
51.8176
311.61
21486.6
51.7333
312.61
21931.1
51.6494
313.61
21588.9
51.5659
314.61
21547.3
51.4828
315.61
23607.3
51.4001
316.61
22903.4
51.3178
317.61
22515.3
51.2358
318.61
22090.6
51.1543
319.61
21863
51.0732
320.61
22432.8
50.9924
321.61
23020.4
50.9121
322.61
22759.1
50.8321
323.61
23162.8
50.7525
324.61
22785.6
50.6732
325.61
22876.4
50.5944
326.61
23135.4
50.5159
327.61
23241.3
50.4377
328.61
23401.4
50.36
329.61
23775.4
50.2825
330.61
23535.7
50.2055
331.61
23399.7
50.1288
332.61
23587.6
50.0524
333.61
23859.4
49.9764
334.61
23837.4
49.9007
335.61
23578.4
49.8254
336.61
23574.6
49.7504
337.61
23347.3
49.6758
338.61
23557.3
49.6015
339.61
23525.4
49.5275
340.61
23911.9
49.4539
341.61
23944.1
49.3805
342.61
24266.8
49.3076
343.61
24470.3
49.2349
344.61
24506
49.1625
345.61
24284
49.0905
346.61
24114.6
49.0188
347.61
24776.2
48.9474
348.61
24734.3
48.8763
349.61
24520.9
48.8055
350.61
24584.1
48.735
351.61
25100.2
48.6649
352.61
24669.4
48.595
353.61
25163.5
48.5254
354.61
24937.1
48.4561
355.61
25585.9
48.3872
356.61
25144.7
48.3185
357.61
25014.5
48.2501
358.61
25424.6
48.182
359.61
25447.9
48.1142
360.61
25640.2
48.0466
361.61
26136.4
47.9794
362.61
25730.6
47.9124
363.61
26115.1
47.8458
364.61
25993.9
47.7793
365.61
26140.3
47.7132
366.61
26458.3
47.6474
367.61
25692.8
47.5818
368.61
25948.6
47.5165
369.61
26384.9
47.4514
370.61
26150.8
47.3866
371.61
26184
47.3221
372.61
26887.5
47.2579
373.61
27048.6
47.1939
374.61
26457.8
47.1301
375.61
26742.6
47.0667
376.61
26680.6
47.0035
377.61
26872.7
46.9405
378.61
27118.8
46.8778
379.61
27491.5
46.8153
380.61
26834.9
46.7531
381.61
27169.7
46.6911
382.61
27231.8
46.6294
383.61
27885
46.5679
384.61
27614.6
46.5067
385.61
27740.6
46.4457
386.61
27574.8
46.385
387.61
27769.5
46.3244
388.61
27314.5
46.2642
389.61
28164.6
46.2041
390.61
28215.2
46.1443
391.61
27772.4
46.0847
392.61
27946.3
46.0254
393.61
28072
45.9663
394.61
28986.1
45.9074
395.61
28640.9
45.8487
396.61
27931.4
45.7903
397.61
27800.6
45.732
398.61
29132.5
45.674
399.61
28665.1
45.6163
400.61
28725.3
45.5587
401.61
29136.3
45.5014
402.61
29238.4
45.4442
403.61
29365.2
45.3873
404.61
29056.3
45.3306
405.61
29495.9
45.2741
406.61
28955.4
45.2179
407.61
29597
45.1618
408.61
29193.9
45.1059
409.61
29321.1
45.0503
410.61
29775.9
44.9948
411.61
29377.4
44.9396
412.61
29529.6
44.8846
413.61
29828.1
44.8297
414.61
30018.2
44.7751
415.61
29834
44.7206
416.61
29996.3
44.6664
417.61
30373.1
44.6124
418.61
30314.6
44.5585
419.61
31086.5
44.5049
420.61
30178
44.4514
421.61
30253.2
44.3981
422.61
30820.5
44.3451
423.61
30735
44.2922
424.61
31271
44.2395
425.61
31323.7
44.187
426.61
30857.3
44.1346
427.61
31076.5
44.0825
428.61
30252.6
44.0306
429.61
31432.3
43.9788
430.61
31016
43.9272
431.61
32185.6
43.8758
432.61
31861.4
43.8246
433.61
31905.9
43.7735
434.61
32140.4
43.7226
435.61
31882.5
43.672
436.61
31804.1
43.6214
437.61
32339.6
43.5711
438.61
31953.6
43.5209
439.61
32897.1
43.4709
440.61
32456.5
43.4211
441.61
32561.5
43.3715
442.61
32865.1
43.322
443.61
32733.6
43.2727
444.61
32345.2
43.2235
445.61
32541.6
43.1745
446.61
33078.3
43.1257
447.61
32882.7
43.0771
448.61
32824.1
43.0286
449.61
32145.7
42.9803
450.61
33879.3
42.9321
451.61
33944.5
42.8841
452.61
33463.8
42.8363
453.61
33995.7
42.7886
454.61
34321.7
42.7411
455.61
33712.2
42.6937
456.61
33822.9
42.6465
457.61
35198.5
42.5995
458.61
34655.7
42.5526
459.61
34811.3
42.5059
460.61
34009.6
42.4593
461.61
34859
42.4129
462.61
35005.1
42.3666
463.61
34346.9
42.3205
464.61
34454.5
42.2745
465.61
35311.3
42.2287
466.61
36074.3
42.183
467.61
36582.6
42.1374
468.61
36478
42.0921
469.61
36448.4
42.0468
470.61
36802.7
42.0017
471.61
37718.8
41.9568
472.61
37531.8
41.912
473.61
36481.2
41.8673
474.61
36675.2
41.8228
475.61
36365.3
41.7784
476.61
36290.3
41.7342
477.61
36313.8
41.6901
478.61
36661.6
41.6462
479.61
37912.6
41.6024
480.61
37630.1
41.5587
481.61
37773.1
41.5151
482.61
37597.9
41.4717
483.61
38116.1
41.4285
484.61
38829.8
41.3853
485.61
39484.7
41.3423
486.61
38626
41.2995
487.61
39142.2
41.2567
488.61
40090.2
41.2141
489.61
39201.1
41.1717
490.61
39574.7
41.1293
491.61
38654.2
41.0871
492.61
37852.7
41.0451
493.61
38725.2
41.0031
494.61
37536.5
40.9613
495.61
38446
40.9196
496.61
38553.7
40.878
497.61
37948.7
40.8366
498.61
38602.9
40.7953
499.61
37477.9
40.7541
500.61
37154.9
40.713
501.61
37456.5
40.6721
502.61
38694.4
40.6313
503.61
39504.9
40.5906
504.61
39709.5
40.55
505.61
40968.1
40.5096
506.61
42570.4
40.4692
507.61
44598.6
40.429
508.61
46921.3
40.389
509.61
47219.7
40.349
510.61
44644
40.3091
511.61
42621.2
40.2694
512.61
41423.9
40.2298
513.61
40569.1
40.1903
514.61
39280.1
40.1509
515.61
38828.2
40.1116
516.61
38663.8
40.0725
517.61
37253.6
40.0334
518.61
37653.3
39.9945
519.61
37098.3
39.9557
520.61
35628.9
39.917
521.61
36215.5
39.8784
522.61
35974.2
39.84
523.61
35966.6
39.8016
524.61
36380.7
39.7633
525.61
36111.9
39.7252
526.61
35791
39.6872
527.61
36429.6
39.6492
528.61
35897.4
39.6114
529.61
35974
39.5737
530.61
35544.8
39.5361
531.61
35471.6
39.4986
532.61
36427.2
39.4612
533.61
36693.3
39.424
534.61
36934.2
39.3868
535.61
36730.8
39.3497
536.61
36751.1
39.3127
537.61
35881.9
39.2759
538.61
36926.7
39.2391
539.61
37109.6
39.2025
540.61
36861
39.1659
541.61
37605.2
39.1295
542.61
37078.4
39.0931
543.61
37794.9
39.0569
544.61
37610.4
39.0207
545.61
37185.9
38.9847
546.61
36840.6
38.9487
547.61
37486.6
38.9129
548.61
38197.9
38.8771
549.61
38255.4
38.8415
550.61
37829.5
38.8059
551.61
38162.7
38.7705
552.61
38173.4
38.7351
553.61
37677.9
38.6999
554.61
38357.6
38.6647
555.61
38313.5
38.6296
556.61
38460.4
38.5946
557.61
38614.9
38.5598
558.61
38816.5
38.525
559.61
38655.6
38.4903
560.61
38574.5
38.4557
561.61
38757.5
38.4212
562.61
39066.8
38.3868
563.61
39293.6
38.3525
564.61
39082.4
38.3182
565.61
38439.1
38.2841
566.61
39090.5
38.25
567.61
38152.9
38.2161
568.61
38546.3
38.1822
569.61
38729.4
38.1485
570.61
39550
38.1148
571.61
39425
38.0812
572.61
39291.3
38.0477
573.61
39660
38.0142
574.61
39880.6
37.9809
575.61
39459.2
37.9477
576.61
40366.3
37.9145
577.61
39404.3
37.8814
578.61
39114
37.8485
579.61
39442.1
37.8156
580.61
39894.8
37.7828
581.61
40594.5
37.75
582.61
41142
37.7174
583.61
41314.5
37.6848
584.61
40379.4
37.6524
585.61
40518.3
37.62
586.61
40805.8
37.5877
587.61
40031.3
37.5554
588.61
40935.1
37.5233
589.61
41727.4
37.4912
590.61
41213.8
37.4593
591.61
40366.5
37.4274
592.61
39954.5
37.3956
593.61
40601.8
37.3638
594.61
41550.4
37.3322
595.61
41174.2
37.3006
596.61
39908.5
37.2691
597.61
40004.1
37.2377
598.61
40413.5
37.2064
599.61
38703.8
37.1751
600.61
37789.9
37.1439
601.61
37104.1
37.1129
602.61
37906
37.0818
603.61
38442
37.0509
604.61
38213.2
37.02
605.61
38043.7
36.9892
606.61
38022.1
36.9585
607.61
37336.4
36.9279
608.61
37188.2
36.8973
609.61
37037.1
36.8669
610.61
37581.6
36.8365
611.61
37433.9
36.8061
612.61
37219.2
36.7759
613.61
37174.9
36.7457
614.61
36637.6
36.7156
615.61
37304.1
36.6856
616.61
38202.2
36.6556
617.61
37762.2
36.6257
618.61
37774.4
36.5959
619.61
37669.5
36.5662
620.61
37697.1
36.5365
621.61
38054.5
36.5069
622.61
38066.4
36.4774
623.61
38224
36.4479
624.61
37840
36.4185
625.61
38640.1
36.3892
626.61
38021.2
36.36
627.61
37930.2
36.3308
628.61
38559.7
36.3017
629.61
38650.8
36.2727
630.61
39697.5
36.2437
631.61
39652.1
36.2148
632.61
39516
36.186
633.61
39685.8
36.1573
634.61
39936.1
36.1286
635.61
40013.3
36.1
636.61
39355
36.0714
637.61
39828.9
36.0429
638.61
40402.7
36.0145
639.61
40237.4
35.9862
640.61
39118.1
35.9579
641.61
39216
35.9297
642.61
40227.9
35.9015
643.61
40883.7
35.8734
644.61
40411.3
35.8454
645.61
40176.1
35.8175
646.61
39271.9
35.7896
647.61
38728.6
35.7618
648.61
38762.4
35.734
649.61
38124.8
35.7063
650.61
38105.2
35.6787
651.61
37059.5
35.6511
652.61
36613.2
35.6236
653.61
35633.9
35.5962
654.61
35011.2
35.5688
655.61
34671.8
35.5415
656.61
34094
35.5143
657.61
34108.6
35.4871
658.61
33420.5
35.46
659.61
33424.4
35.4329
660.61
33410.8
35.4059
661.61
33088.8
35.379
662.61
32447.9
35.3521
663.61
32709.7
35.3253
664.61
33042.6
35.2986
665.61
33160.9
35.2719
666.61
32475
35.2452
667.61
32694.2
35.2187
668.61
33356.6
35.1922
669.61
32765.8
35.1657
670.61
32989.5
35.1393
671.61
33519.9
35.113
672.61
33337.6
35.0867
673.61
32959.6
35.0605
674.61
33471.2
35.0343
675.61
33635.7
35.0082
676.61
34246.7
34.9822
677.61
33536.4
34.9562
678.61
33207
34.9303
679.61
33850
34.9044
680.61
34221.8
34.8786
681.61
34150.6
34.8529
682.61
33819.6
34.8272
683.61
34058.2
34.8016
684.61
34473.3
34.776
685.61
34049.1
34.7505
686.61
33899.6
34.725
687.61
34278.1
34.6996
688.61
32797.2
34.6742
689.61
33498.7
34.6489
690.61
33890.1
34.6237
691.61
33946.7
34.5985
692.61
34235.1
34.5733
693.61
35156.4
34.5483
694.61
35035.1
34.5232
695.61
35841.3
34.4983
696.61
35701.8
34.4734
697.61
36570.7
34.4485
698.61
36075.6
34.4237
699.61
36441.3
34.3989
700.61
37434.5
34.3742
701.61
37228.9
34.3496
702.61
37006.4
34.325
703.61
36580.6
34.3004
704.61
35991.7
34.2759
705.61
35388.6
34.2515
706.61
35170.2
34.2271
707.61
35057.6
34.2028
708.61
33893.8
34.1785
709.61
32926.3
34.1543
710.61
32694.2
34.1301
711.61
33807.6
34.106
712.61
34488.3
34.0819
713.61
34494.1
34.0578
714.61
33890.6
34.0339
715.61
33283.8
34.0099
716.61
33660.7
33.9861
717.61
33621.6
33.9622
718.61
33323.5
33.9385
719.61
33790.5
33.9147
720.61
32614.5
33.8911
721.61
32874.5
33.8674
722.61
32554.7
33.8439
723.61
32398.9
33.8203
724.61
33327.5
33.7969
725.61
32870.3
33.7734
726.61
32982
33.7501
727.61
33512.6
33.7267
728.61
33100.5
33.7034
729.61
33131.8
33.6802
730.61
33334.3
33.657
731.61
32653.9
33.6339
732.61
33982.8
33.6108
733.61
33002.2
33.5877
734.61
34189.1
33.5647
735.61
33936.1
33.5418
736.61
33454.2
33.5189
737.61
33577.4
33.496
738.61
34217.1
33.4732
739.61
34104.8
33.4505
740.61
34752.2
33.4277
741.61
34329.4
33.4051
742.61
35765.6
33.3824
743.61
34927.8
33.3599
744.61
34767.5
33.3373
745.61
34605.9
33.3148
746.61
33289.9
33.2924
747.61
34213.2
33.27
748.61
34434
33.2477
749.61
34758.7
33.2254
750.61
35532.1
33.2031
751.61
36253.6
33.1809
752.61
36049.4
33.1587
753.61
37016.7
33.1366
754.61
36226
33.1145
755.61
36693.6
33.0925
756.61
36628
33.0705
757.61
36425.6
33.0485
758.61
36881.5
33.0266
759.61
37754.5
33.0047
760.61
39094.9
32.9829
761.61
39594.6
32.9611
762.61
38731.3
32.9394
763.61
38004.7
32.9177
764.61
36773.6
32.8961
765.61
34402.9
32.8744
766.61
34239.4
32.8529
767.61
33477
32.8314
768.61
33150.5
32.8099
769.61
33271.1
32.7884
770.61
34049.5
32.7671
771.61
34550.4
32.7457
772.61
36645.3
32.7244
773.61
39476.9
32.7031
774.61
41438.5
32.6819
775.61
40153.4
32.6607
776.61
38074.8
32.6396
777.61
33979.1
32.6184
778.61
28033
32.5974
779.61
24923.7
32.5764
780.61
22677.4
32.5554
781.61
22298.1
32.5344
782.61
21216.5
32.5135
783.61
21232.3
32.4927
784.61
21897.1
32.4718
785.61
21911
32.4511
786.61
21791.9
32.4303
787.61
21148.8
32.4096
788.61
21907
32.389
789.61
21630.1
32.3683
790.61
21832.8
32.3478
791.61
21832.1
32.3272
792.61
21321.1
32.3067
793.61
21291.8
32.2862
794.61
21761.1
32.2658
795.61
21710.7
32.2454
796.61
21849.7
32.2251
797.61
21955.4
32.2048
798.61
22421.9
32.1845
799.61
22618.3
32.1642
800.61
22598.5
32.144
801.61
22553.8
32.1239
802.61
22017.1
32.1038
803.61
22553.9
32.0837
804.61
22201.3
32.0636
805.61
21853.8
32.0436
806.61
22413.4
32.0237
807.61
22045.8
32.0037
808.61
22473.1
31.9838
809.61
22395.6
31.964
810.61
22614.9
31.9441
811.61
22934.8
31.9244
812.61
22728.8
31.9046
813.61
22716.2
31.8849
814.61
22215.3
31.8652
815.61
23144.3
31.8456
816.61
22969.7
31.826
817.61
23106.9
31.8064
818.61
22979.1
31.7869
819.61
22954.4
31.7674
820.61
23272.2
31.7479
821.61
22869.9
31.7285
822.61
22656.1
31.7091
823.61
23237.1
31.6898
824.61
23494.1
31.6704
825.61
22487.2
31.6512
826.61
23008
31.6319
827.61
22590.5
31.6127
828.61
22804.9
31.5935
829.61
23743.4
31.5744
830.61
23271.9
31.5553
831.61
23908.5
31.5362
832.61
24016.9
31.5172
833.61
23802
31.4982
834.61
24074.2
31.4792
835.61
23750.9
31.4603
836.61
23729.7
31.4414
837.61
23353.4
31.4225
838.61
23673.5
31.4037
839.61
23816.2
31.3849
840.61
23586.7
31.3661
841.61
23255
31.3474
842.61
23785.1
31.3287
843.61
24017.7
31.31
844.61
23702.4
31.2914
845.61
24006.4
31.2728
846.61
23742.9
31.2542
847.61
24131.1
31.2357
848.61
24420.7
31.2172
849.61
24073.6
31.1987
850.61
23434.9
31.1803
851.61
23902.9
31.1619
852.61
24731.2
31.1435
853.61
24888.2
31.1252
854.61
24476.1
31.1069
855.61
24263.5
31.0886
856.61
23900.7
31.0704
857.61
24634.5
31.0522
858.61
24252.4
31.034
859.61
25344.1
31.0158
860.61
24700.1
30.9977
861.61
24738.9
30.9796
862.61
24833.9
30.9616
863.61
24472.7
30.9436
864.61
25037.1
30.9256
865.61
24872.1
30.9076
866.61
25410.3
30.8897
867.61
25543.3
30.8718
868.61
25483
30.854
869.61
25342
30.8361
870.61
25642.3
30.8183
871.61
25455.6
30.8006
872.61
25806.4
30.7828
873.61
25269.6
30.7651
874.61
26298.9
30.7475
875.61
25984.2
30.7298
876.61
26255.3
30.7122
877.61
25798.5
30.6946
878.61
25474.2
30.6771
879.61
25671.2
30.6595
880.61
26107.7
30.642
881.61
26169
30.6246
882.61
26033.8
30.6071
883.61
25963.1
